        t_i  t_i-(t)_N  (t_i-(t)_N)^2
0     346.0     96.945       9398.294
1     333.0     83.945       7046.729
2     343.0     93.945       8825.625
3     340.0     90.945       8270.957
4     320.0     70.945       5033.165
5     314.0     64.945       4217.827
6     320.0     70.945       5033.165
7     330.0     80.945       6552.061
8     314.0     64.945       4217.827
9     308.0     58.945       3474.489
10    333.0     83.945       7046.729
11    337.0     87.945       7734.288
12    310.0     60.945       3714.269
13    329.0     79.945       6391.171
14    315.0     65.945       4348.717
15    296.0     46.945       2203.814
16    330.0     80.945       6552.061
17    296.0     46.945       2203.814
18    312.0     62.945       3962.048
19    315.0     65.945       4348.717
20    318.0     68.945       4753.385
21    321.0     71.945       5176.054
22    300.0     50.945       2595.373
23    326.0     76.945       5920.502
24    311.0     61.945       3837.158
25    298.0     48.945       2395.593
26    293.0     43.945       1931.145
27    301.0     51.945       2698.262
28    315.0     65.945       4348.717
29    329.0     79.945       6391.171
30    303.0     53.945       2910.041
31    278.0     28.945        837.801
32    263.0     13.945        194.457
33    269.0     19.945        397.795
34    270.0     20.945        438.685
35    252.0      2.945          8.672
36    275.0     25.945        673.133
37    282.0     32.945       1085.360
38    264.0     14.945        223.347
39    247.0     -2.055          4.224
40    275.0     25.945        673.133
41    262.0     12.945        167.568
42    251.0      1.945          3.782
43    258.0      8.945         80.009
44    247.0     -2.055          4.224
45    285.0     35.945       1292.029
46    273.0     23.945        573.353
47    270.0     20.945        438.685
48    289.0     39.945       1595.587
49    251.0      1.945          3.782
50    252.0      2.945          8.672
51    276.0     26.945        726.022
52    260.0     10.945        119.789
53    267.0     17.945        322.016
54    250.0      0.945          0.893
55    245.0     -4.055         16.445
56    263.0     13.945        194.457
57    270.0     20.945        438.685
58    254.0      4.945         24.451
59    242.0     -7.055         49.776
60    257.0      7.945         63.120
61    259.0      9.945         98.899
62    239.0    -10.055        101.107
63    268.0     18.945        358.905
64    243.0     -6.055         36.665
65    227.0    -22.055        486.432
66    233.0    -16.055        257.769
67    223.0    -26.055        678.873
68    239.0    -10.055        101.107
69    232.0    -17.055        290.880
70    231.0    -18.055        325.990
71    203.0    -46.055       2121.081
72    185.0    -64.055       4103.069
73    174.0    -75.055       5633.283
74    199.0    -50.055       2505.523
75    186.0    -63.055       3975.958
76    198.0    -51.055       2606.633
77    193.0    -56.055       3142.185
78    187.0    -62.055       3850.848
79    204.0    -45.055       2029.971
80    179.0    -70.055       4907.731
81    205.0    -44.055       1940.861
82    211.0    -38.055       1448.198
83    219.0    -30.055        903.315
84    230.0    -19.055        363.101
85    240.0     -9.055         81.997
86    259.0      9.945         98.899
87    234.0    -15.055        226.659
88    242.0     -7.055         49.776
89    240.0     -9.055         81.997
90    258.0      8.945         80.009
91    250.0      0.945          0.893
92    241.0     -8.055         64.886
93    252.0      2.945          8.672
94    229.0    -20.055        402.211
95    255.0      5.945         35.341
96    260.0     10.945        119.789
97    246.0     -3.055          9.334
98    232.0    -17.055        290.880
99    240.0     -9.055         81.997
100   240.0     -9.055         81.997
101   241.0     -8.055         64.886
102   255.0      5.945         35.341
103   240.0     -9.055         81.997
104   254.0      4.945         24.451
105   232.0    -17.055        290.880
106   246.0     -3.055          9.334
107   266.0     16.945        287.126
108   250.0      0.945          0.893
109   274.0     24.945        622.243
110   259.0      9.945         98.899
111   258.0      8.945         80.009
112   242.0     -7.055         49.776
113   256.0      6.945         48.230
114   240.0     -9.055         81.997
115   249.0     -0.055          0.003
116   250.0      0.945          0.893
117   262.0     12.945        167.568
118   241.0     -8.055         64.886
119   232.0    -17.055        290.880
120   268.0     18.945        358.905
121   258.0      8.945         80.009
122   254.0      4.945         24.451
123   255.0      5.945         35.341
124   266.0     16.945        287.126
125   249.0     -0.055          0.003
126   291.0     41.945       1759.366
127   278.0     28.945        837.801
128   253.0      3.945         15.561
129   271.0     21.945        481.574
130   289.0     39.945       1595.587
131   279.0     29.945        896.691
132   280.0     30.945        957.581
133   274.0     24.945        622.243
134   276.0     26.945        726.022
135   290.0     40.945       1676.477
136   280.0     30.945        957.581
137   278.0     28.945        837.801
138   265.0     15.945        254.237
139   258.0      8.945         80.009
140   265.0     15.945        254.237
141   267.0     17.945        322.016
142   285.0     35.945       1292.029
143   289.0     39.945       1595.587
144   288.0     38.945       1516.697
145   267.0     17.945        322.016
146   262.0     12.945        167.568
147   280.0     30.945        957.581
148   255.0      5.945         35.341
149   264.0     14.945        223.347
150   273.0     23.945        573.353
151   262.0     12.945        167.568
152   297.0     47.945       2298.704
153   271.0     21.945        481.574
154   278.0     28.945        837.801
155   296.0     46.945       2203.814
156   284.0     34.945       1221.139
157   273.0     23.945        573.353
158   299.0     49.945       2494.483
159   295.0     45.945       2110.925
160   292.0     42.945       1844.256
161   292.0     42.945       1844.256
162   310.0     60.945       3714.269
163   329.0     79.945       6391.171
164   309.0     59.945       3593.379
165   313.0     63.945       4088.937
166   314.0     64.945       4217.827
167   311.0     61.945       3837.158
168   320.0     70.945       5033.165
169   299.0     49.945       2494.483
170   300.0     50.945       2595.373
171   308.0     58.945       3474.489
172   303.0     53.945       2910.041
173   301.0     51.945       2698.262
174   289.0     39.945       1595.587
175   297.0     47.945       2298.704
176   307.0     57.945       3357.600
177   276.0     26.945        726.022
178   282.0     32.945       1085.360
179   283.0     33.945       1152.249
180   287.0     37.945       1439.808
181   285.0     35.945       1292.029
182   267.0     17.945        322.016
183   267.0     17.945        322.016
184   259.0      9.945         98.899
185   293.0     43.945       1931.145
186   275.0     25.945        673.133
187   284.0     34.945       1221.139
188   272.0     22.945        526.464
189   258.0      8.945         80.009
190   279.0     29.945        896.691
191   262.0     12.945        167.568
192   257.0      7.945         63.120
193   253.0      3.945         15.561
194   253.0      3.945         15.561
195   247.0     -2.055          4.224
196   207.0    -42.055       1768.640
197   208.0    -41.055       1685.529
198   197.0    -52.055       2709.744
199   212.0    -37.055       1373.088
200   230.0    -19.055        363.101
201   218.0    -31.055        964.425
202   221.0    -28.055        787.094
203   226.0    -23.055        531.542
204   227.0    -22.055        486.432
205   232.0    -17.055        290.880
206   199.0    -50.055       2505.523
207   197.0    -52.055       2709.744
208   193.0    -56.055       3142.185
209   170.0    -79.055       6249.725
210   193.0    -56.055       3142.185
211   203.0    -46.055       2121.081
212   226.0    -23.055        531.542
213   215.0    -34.055       1159.757
214   226.0    -23.055        531.542
215   244.0     -5.055         25.555
216   229.0    -20.055        402.211
217   203.0    -46.055       2121.081
218   202.0    -47.055       2214.192
219   208.0    -41.055       1685.529
220   219.0    -30.055        903.315
221   220.0    -29.055        844.205
222   201.0    -48.055       2309.302
223   194.0    -55.055       3031.075
224   191.0    -58.055       3370.406
225   200.0    -49.055       2406.413
226   186.0    -63.055       3975.958
227   184.0    -65.055       4232.179
228   214.0    -35.055       1228.867
229   202.0    -47.055       2214.192
230   208.0    -41.055       1685.529
231   197.0    -52.055       2709.744
232   216.0    -33.055       1092.646
233   204.0    -45.055       2029.971
234   212.0    -37.055       1373.088
235   230.0    -19.055        363.101
236   211.0    -38.055       1448.198
237   222.0    -27.055        731.984
238   198.0    -51.055       2606.633
239   208.0    -41.055       1685.529
240   199.0    -50.055       2505.523
241   194.0    -55.055       3031.075
242   201.0    -48.055       2309.302
243   229.0    -20.055        402.211
244   230.0    -19.055        363.101
245   211.0    -38.055       1448.198
246   210.0    -39.055       1525.309
247   195.0    -54.055       2921.965
248   202.0    -47.055       2214.192
249   207.0    -42.055       1768.640
250   206.0    -43.055       1853.750
251   216.0    -33.055       1092.646
252   195.0    -54.055       2921.965
253   184.0    -65.055       4232.179
254   157.0    -92.055       8474.160
255   152.0    -97.055       9419.712
256   145.0   -104.055      10827.485
257   147.0   -102.055      10415.264
258   196.0    -53.055       2814.854
259   180.0    -69.055       4768.621
260   149.0   -100.055      10011.043
261   147.0   -102.055      10415.264
262   156.0    -93.055       8659.270
263   172.0    -77.055       5937.504
264   167.0    -82.055       6733.056
265   168.0    -81.055       6569.945
266   162.0    -87.055       7578.608
267   179.0    -70.055       4907.731
268   190.0    -59.055       3487.517
269   166.0    -83.055       6898.166
270   180.0    -69.055       4768.621
271   177.0    -72.055       5191.952
272   189.0    -60.055       3606.627
273   203.0    -46.055       2121.081
274   215.0    -34.055       1159.757
275   196.0    -53.055       2814.854
276   177.0    -72.055       5191.952
277   201.0    -48.055       2309.302
278   178.0    -71.055       5048.841
279   176.0    -73.055       5337.062
280   209.0    -40.055       1604.419
281   199.0    -50.055       2505.523
282   187.0    -62.055       3850.848
283   213.0    -36.055       1299.977
284   215.0    -34.055       1159.757
285   215.0    -34.055       1159.757
286   195.0    -54.055       2921.965
287   182.0    -67.055       4496.400
288   196.0    -53.055       2814.854
289   160.0    -89.055       7930.829
290   177.0    -72.055       5191.952
291   192.0    -57.055       3255.296
292   170.0    -79.055       6249.725
293   165.0    -84.055       7065.277
294   175.0    -74.055       5484.173
295   165.0    -84.055       7065.277
296   168.0    -81.055       6569.945
297   188.0    -61.055       3727.737
298   201.0    -48.055       2309.302
299   188.0    -61.055       3727.737
300   186.0    -63.055       3975.958
301   187.0    -62.055       3850.848
302   198.0    -51.055       2606.633
303   212.0    -37.055       1373.088
304   202.0    -47.055       2214.192
305   192.0    -57.055       3255.296
306   173.0    -76.055       5784.393
307   186.0    -63.055       3975.958
308   190.0    -59.055       3487.517
309   185.0    -64.055       4103.069
310   199.0    -50.055       2505.523
311   196.0    -53.055       2814.854
312   213.0    -36.055       1299.977
313   196.0    -53.055       2814.854
314   187.0    -62.055       3850.848
315   181.0    -68.055       4631.510
316   188.0    -61.055       3727.737
317   203.0    -46.055       2121.081
318   180.0    -69.055       4768.621
319   177.0    -72.055       5191.952
320   173.0    -76.055       5784.393
321   141.0   -108.055      11675.926
322   138.0   -111.055      12333.257
323   147.0   -102.055      10415.264
324   141.0   -108.055      11675.926
325   161.0    -88.055       7753.718
326   144.0   -105.055      11036.595
327   133.0   -116.055      13468.809
328   129.0   -120.055      14413.251
329   124.0   -125.055      15638.803
330   118.0   -131.055      17175.465
331   124.0   -125.055      15638.803
332   145.0   -104.055      10827.485
333   144.0   -105.055      11036.595
334   152.0    -97.055       9419.712
335   159.0    -90.055       8109.939
336   168.0    -81.055       6569.945
337   168.0    -81.055       6569.945
338   142.0   -107.055      11460.816
339   122.0   -127.055      16143.024
340   132.0   -117.055      13701.920
341   147.0   -102.055      10415.264
342   123.0   -126.055      15889.913
343   137.0   -112.055      12556.368
344   152.0    -97.055       9419.712
345   126.0   -123.055      15142.582
346   163.0    -86.055       7405.497
347   151.0    -98.055       9614.822
348   132.0   -117.055      13701.920
349   142.0   -107.055      11460.816
350   147.0   -102.055      10415.264
351   133.0   -116.055      13468.809
352   138.0   -111.055      12333.257
353   136.0   -113.055      12781.478
354   143.0   -106.055      11247.705
355   135.0   -114.055      13008.589
356   134.0   -115.055      13237.699
357   118.0   -131.055      17175.465
358    99.0   -150.055      22516.563
359   137.0   -112.055      12556.368
360   138.0   -111.055      12333.257
361   135.0   -114.055      13008.589
362   142.0   -107.055      11460.816
363   133.0   -116.055      13468.809
364   120.0   -129.055      16655.245
365    98.0   -151.055      22817.673
366    92.0   -157.055      24666.336
367    93.0   -156.055      24353.225
368    97.0   -152.055      23120.784
369   108.0   -141.055      19896.569
370   105.0   -144.055      20751.901
371   112.0   -137.055      18784.128
372   108.0   -141.055      19896.569
373   112.0   -137.055      18784.128
374   119.0   -130.055      16914.355
375   124.0   -125.055      15638.803
376   130.0   -119.055      14174.141
377   120.0   -129.055      16655.245
378   116.0   -133.055      17703.686
379   134.0   -115.055      13237.699
380   137.0   -112.055      12556.368
381   128.0   -121.055      14654.361
382   151.0    -98.055       9614.822
383   136.0   -113.055      12781.478
384   112.0   -137.055      18784.128
385   118.0   -131.055      17175.465
386   119.0   -130.055      16914.355
387    96.0   -153.055      23425.894
388   133.0   -116.055      13468.809
389   130.0   -119.055      14174.141
390   113.0   -136.055      18511.017
391   102.0   -147.055      21625.232
392    79.0   -170.055      28918.771
393   100.0   -149.055      22217.453
394   102.0   -147.055      21625.232
395   116.0   -133.055      17703.686
396   113.0   -136.055      18511.017
397   128.0   -121.055      14654.361
398   126.0   -123.055      15142.582
399   143.0   -106.055      11247.705
400   135.0   -114.055      13008.589
401   140.0   -109.055      11893.037
402   132.0   -117.055      13701.920
403   141.0   -108.055      11675.926
404   157.0    -92.055       8474.160
405   161.0    -88.055       7753.718
406   188.0    -61.055       3727.737
407   182.0    -67.055       4496.400
408   168.0    -81.055       6569.945
409   166.0    -83.055       6898.166
410   165.0    -84.055       7065.277
411   171.0    -78.055       6092.614
412   182.0    -67.055       4496.400
413   173.0    -76.055       5784.393
414   204.0    -45.055       2029.971
415   214.0    -35.055       1228.867
416   212.0    -37.055       1373.088
417   205.0    -44.055       1940.861
418   211.0    -38.055       1448.198
419   226.0    -23.055        531.542
420   232.0    -17.055        290.880
421   227.0    -22.055        486.432
422   232.0    -17.055        290.880
423   258.0      8.945         80.009
424   240.0     -9.055         81.997
425   221.0    -28.055        787.094
426   237.0    -12.055        145.328
427   234.0    -15.055        226.659
428   230.0    -19.055        363.101
429   253.0      3.945         15.561
430   268.0     18.945        358.905
431   247.0     -2.055          4.224
432   239.0    -10.055        101.107
433   246.0     -3.055          9.334
434   265.0     15.945        254.237
435   283.0     33.945       1152.249
436   260.0     10.945        119.789
437   255.0      5.945         35.341
438   246.0     -3.055          9.334
439   240.0     -9.055         81.997
440   231.0    -18.055        325.990
441   249.0     -0.055          0.003
442   260.0     10.945        119.789
443   222.0    -27.055        731.984
444   215.0    -34.055       1159.757
445   227.0    -22.055        486.432
446   237.0    -12.055        145.328
447   243.0     -6.055         36.665
448   251.0      1.945          3.782
449   251.0      1.945          3.782
450   266.0     16.945        287.126
451   276.0     26.945        726.022
452   281.0     31.945       1020.470
453   276.0     26.945        726.022
454   290.0     40.945       1676.477
455   267.0     17.945        322.016
456   273.0     23.945        573.353
457   295.0     45.945       2110.925
458   257.0      7.945         63.120
459   282.0     32.945       1085.360
460   262.0     12.945        167.568
461   236.0    -13.055        170.438
462   257.0      7.945         63.120
463   263.0     13.945        194.457
464   257.0      7.945         63.120
465   247.0     -2.055          4.224
466   241.0     -8.055         64.886
467   251.0      1.945          3.782
468   260.0     10.945        119.789
469   268.0     18.945        358.905
470   268.0     18.945        358.905
471   253.0      3.945         15.561
472   262.0     12.945        167.568
473   273.0     23.945        573.353
474   264.0     14.945        223.347
475   278.0     28.945        837.801
476   264.0     14.945        223.347
477   256.0      6.945         48.230
478   252.0      2.945          8.672
479   241.0     -8.055         64.886
480   260.0     10.945        119.789
481   267.0     17.945        322.016
482   269.0     19.945        397.795
483   272.0     22.945        526.464
484   270.0     20.945        438.685
485   271.0     21.945        481.574
486   270.0     20.945        438.685
487   268.0     18.945        358.905
488   284.0     34.945       1221.139
489   287.0     37.945       1439.808
490   306.0     56.945       3242.710
491   308.0     58.945       3474.489
492   322.0     72.945       5320.944
493   332.0     82.945       6879.840
494   337.0     87.945       7734.288
495   328.0     78.945       6232.281
496   311.0     61.945       3837.158
497   306.0     56.945       3242.710
498   316.0     66.945       4481.606
499   327.0     77.945       6075.392
500   319.0     69.945       4892.275
501   326.0     76.945       5920.502
502   324.0     74.945       5616.723
503   296.0     46.945       2203.814
504   318.0     68.945       4753.385
505   320.0     70.945       5033.165
506   298.0     48.945       2395.593
507   312.0     62.945       3962.048
508   316.0     66.945       4481.606
509   307.0     57.945       3357.600
510   299.0     49.945       2494.483
511   303.0     53.945       2910.041
512   285.0     35.945       1292.029
513   283.0     33.945       1152.249
514   293.0     43.945       1931.145
515   279.0     29.945        896.691
516   280.0     30.945        957.581
517   279.0     29.945        896.691
518   283.0     33.945       1152.249
519   291.0     41.945       1759.366
520   276.0     26.945        726.022
521   270.0     20.945        438.685
522   278.0     28.945        837.801
523   303.0     53.945       2910.041
524   283.0     33.945       1152.249
